 # log(r) log(d) del_ad  del_el  del  del_rad  log(v)
   8.341234   2.078913      0.396858      2.126576      0.396858     231.02
   8.344567   2.078910      0.396858      2.126616      0.396858     231.61
   8.347901   2.078906      0.396858      2.126652      0.396858     232.21
   8.351234   2.078903      0.396858      2.126684      0.396858     232.80
   8.354568   2.078899      0.396858      2.126713      0.396858     233.40
   8.357901   2.078895      0.396858      2.126737      0.396858     234.00
   8.361235   2.078892      0.396858      2.126759      0.396858     234.59
   8.364568   2.078888      0.396858      2.126776      0.396858     235.20
   8.367902   2.078884      0.396858      2.126791      0.396858     235.80
   8.371235   2.078880      0.396858      2.126801      0.396858     236.40
   8.374569   2.078876      0.396858      2.126809      0.396858     237.01
   8.377902   2.078872      0.396858      2.126812      0.396858     237.61
   8.381236   2.078868      0.396858      2.126813      0.396858     238.22
   8.384570   2.078864      0.396858      2.126810      0.396858     238.83
   8.387903   2.078860      0.396858      2.126804      0.396858     239.44
   8.391237   2.078855      0.396858      2.126794      0.396858     240.05
   8.394571   2.078851      0.396858      2.126781      0.396858     240.66
   8.397904   2.078847      0.396858      2.126765      0.396858     241.28
   8.401238   2.078842      0.396858      2.126745      0.396858     241.89
   8.404572   2.078838      0.396858      2.126723      0.396858     242.51
   8.407906   2.078833      0.396858      2.126697      0.396858     243.13
   8.411240   2.078828      0.396858      2.126668      0.396858     243.75
   8.414574   2.078823      0.396858      2.126635      0.396858     244.37
   8.417907   2.078819      0.396858      2.126600      0.396858     244.99
   8.421241   2.078814      0.396858      2.126561      0.396858     245.62
   8.424575   2.078809      0.396858      2.126519      0.396858     246.24
   8.427909   2.078804      0.396858      2.126474      0.396858     246.87
   8.431243   2.078798      0.396858      2.126426      0.396858     247.50
   8.434577   2.078793      0.396858      2.126375      0.396858     248.13
   8.437911   2.078788      0.396858      2.126321      0.396858     248.76
   8.441245   2.078783      0.396858      2.126263      0.396858     249.39
   8.444579   2.078777      0.396858      2.126203      0.396858     250.03
   8.447914   2.078771      0.396858      2.126139      0.396858     250.66
   8.451248   2.078766      0.396858      2.126072      0.396858     251.30
   8.454582   2.078760      0.396858      2.126002      0.396858     251.94
   8.457916   2.078754      0.396858      2.125929      0.396858     252.58
   8.461250   2.078748      0.396858      2.125853      0.396858     253.22
   8.464585   2.078742      0.396858      2.125774      0.396858     253.86
   8.467919   2.078736      0.396858      2.125691      0.396858     254.51
   8.471253   2.078730      0.396858      2.125606      0.396858     255.15
   8.474587   2.078724      0.396858      2.125517      0.396858     255.80
   8.477922   2.078717      0.396858      2.125426      0.396858     256.45
   8.481256   2.078711      0.396858      2.125331      0.396858     257.10
   8.484591   2.078704      0.396858      2.125233      0.396858     257.75
   8.487925   2.078698      0.396858      2.125132      0.396858     258.41
   8.491259   2.078691      0.396858      2.125027      0.396858     259.06
   8.494594   2.078684      0.396858      2.124920      0.396858     259.72
   8.497928   2.078677      0.396858      2.124809      0.396858     260.37
   8.501263   2.078670      0.396858      2.124695      0.396858     261.03
   8.504597   2.078663      0.396858      2.124578      0.396858     261.69
   8.507932   2.078655      0.396857      2.124457      0.396857     262.35
   8.511267   2.078648      0.396857      2.124334      0.396857     263.02
   8.514601   2.078640      0.396857      2.124207      0.396857     263.68
   8.517936   2.078633      0.396857      2.124077      0.396857     264.35
   8.521271   2.078625      0.396857      2.123943      0.396857     265.02
   8.524605   2.078617      0.396857      2.123806      0.396857     265.69
   8.527940   2.078609      0.396857      2.123666      0.396857     266.36
   8.531275   2.078601      0.396857      2.123523      0.396857     267.03
   8.534610   2.078592      0.396857      2.123376      0.396857     267.70
   8.537945   2.078584      0.396857      2.123225      0.396857     268.38
   8.541279   2.078575      0.396857      2.123072      0.396857     269.05
   8.544614   2.078567      0.396857      2.122914      0.396857     269.73
   8.547949   2.078558      0.396857      2.122753      0.396857     270.41
   8.551284   2.078549      0.396857      2.122589      0.396857     271.09
   8.554619   2.078540      0.396857      2.122421      0.396857     271.77
   8.557954   2.078531      0.396857      2.122250      0.396857     272.46
   8.561289   2.078521      0.396857      2.122075      0.396857     273.14
   8.564624   2.078512      0.396857      2.121896      0.396857     273.83
   8.567959   2.078502      0.396857      2.121714      0.396857     274.52
   8.571295   2.078492      0.396857      2.121528      0.396857     275.21
   8.574630   2.078482      0.396857      2.121338      0.396857     275.90
   8.577965   2.078472      0.396857      2.121144      0.396857     276.59
   8.581300   2.078462      0.396857      2.120947      0.396857     277.29
   8.584636   2.078451      0.396857      2.120745      0.396857     277.98
   8.587971   2.078441      0.396857      2.120540      0.396857     278.68
   8.591306   2.078430      0.396857      2.120331      0.396857     279.38
   8.594642   2.078419      0.396857      2.120118      0.396857     280.08
   8.597977   2.078408      0.396857      2.119900      0.396857     280.78
   8.601313   2.078397      0.396857      2.119679      0.396857     281.48
   8.604648   2.078385      0.396857      2.119454      0.396857     282.19
   8.607984   2.078374      0.396857      2.119224      0.396857     282.89
   8.611319   2.078362      0.396857      2.118990      0.396857     283.60
   8.614655   2.078350      0.396857      2.118753      0.396857     284.31
   8.617991   2.078338      0.396857      2.118510      0.396857     285.02
   8.621326   2.078325      0.396857      2.118264      0.396857     285.73
   8.624662   2.078313      0.396857      2.118013      0.396857     286.44
   8.627998   2.078300      0.396857      2.117757      0.396857     287.16
   8.631334   2.078287      0.396857      2.117497      0.396857     287.88
   8.634669   2.078274      0.396857      2.117233      0.396857     288.59
   8.638005   2.078260      0.396857      2.116963      0.396857     289.31
   8.641341   2.078247      0.396857      2.116690      0.396857     290.03
   8.644677   2.078233      0.396857      2.116411      0.396857     290.75
   8.648013   2.078219      0.396857      2.116128      0.396857     291.48
   8.651349   2.078205      0.396857      2.115839      0.396857     292.20
   8.654686   2.078190      0.396857      2.115546      0.396857     292.93
   8.658022   2.078176      0.396857      2.115248      0.396857     293.66
   8.661358   2.078161      0.396857      2.114945      0.396857     294.39
   8.664694   2.078146      0.396857      2.114637      0.396857     295.12
   8.668031   2.078130      0.396857      2.114324      0.396857     295.85
   8.671367   2.078115      0.396857      2.114005      0.396857     296.58
   8.674703   2.078099      0.396857      2.113682      0.396857     297.32
   8.678040   2.078083      0.396857      2.113352      0.396857     298.05
   8.681376   2.078067      0.396857      2.113018      0.396857     298.79
   8.684713   2.078050      0.396857      2.112678      0.396857     299.53
   8.688050   2.078033      0.396857      2.112332      0.396857     300.27
   8.691386   2.078016      0.396856      2.111981      0.396856     301.01
   8.694723   2.077999      0.396856      2.111624      0.396856     301.75
   8.698060   2.077981      0.396856      2.111261      0.396856     302.50
   8.701397   2.077963      0.396856      2.110892      0.396856     303.24
   8.704734   2.077945      0.396856      2.110518      0.396856     303.99
   8.708071   2.077927      0.396856      2.110137      0.396856     304.74
   8.711408   2.077908      0.396856      2.109750      0.396856     305.49
   8.714745   2.077889      0.396856      2.109357      0.396856     306.24
   8.718082   2.077870      0.396856      2.108958      0.396856     306.99
   8.721419   2.077850      0.396856      2.108553      0.396856     307.75
   8.724756   2.077830      0.396856      2.108141      0.396856     308.50
   8.728094   2.077810      0.396856      2.107722      0.396856     309.26
   8.731431   2.077789      0.396856      2.107297      0.396856     310.02
   8.734769   2.077768      0.396856      2.106865      0.396856     310.78
   8.738106   2.077747      0.396856      2.106426      0.396856     311.54
   8.741444   2.077726      0.396856      2.105981      0.396856     312.30
   8.744781   2.077704      0.396856      2.105528      0.396856     313.06
   8.748119   2.077682      0.396856      2.105069      0.396856     313.83
   8.751457   2.077659      0.396856      2.104602      0.396856     314.59
   8.754795   2.077636      0.396856      2.104128      0.396856     315.36
   8.758133   2.077613      0.396856      2.103646      0.396856     316.13
   8.761471   2.077589      0.396856      2.103157      0.396856     316.90
   8.764809   2.077565      0.396856      2.102661      0.396856     317.67
   8.768147   2.077541      0.396856      2.102157      0.396856     318.44
   8.771485   2.077516      0.396856      2.101644      0.396856     319.22
   8.774823   2.077491      0.396856      2.101125      0.396856     319.99
   8.778162   2.077466      0.396856      2.100597      0.396856     320.77
   8.781500   2.077440      0.396856      2.100060      0.396856     321.54
   8.784839   2.077413      0.396856      2.099516      0.396856     322.32
   8.788178   2.077387      0.396855      2.098963      0.396855     323.10
   8.791516   2.077360      0.396855      2.098402      0.396855     323.88
   8.794855   2.077332      0.396855      2.097833      0.396855     324.66
   8.798194   2.077304      0.396855      2.097254      0.396855     325.44
   8.801533   2.077276      0.396855      2.096667      0.396855     326.23
   8.804872   2.077247      0.396855      2.096071      0.396855     327.01
   8.808211   2.077218      0.396855      2.095465      0.396855     327.80
   8.811550   2.077188      0.396855      2.094851      0.396855     328.59
   8.814890   2.077158      0.396855      2.094227      0.396855     329.37
   8.818229   2.077127      0.396855      2.093594      0.396855     330.16
   8.821569   2.077096      0.396855      2.092951      0.396855     330.95
   8.824908   2.077064      0.396855      2.092298      0.396855     331.74
   8.828248   2.077032      0.396855      2.091636      0.396855     332.54
   8.831588   2.076999      0.396855      2.090963      0.396855     333.33
   8.834928   2.076966      0.396855      2.090281      0.396855     334.12
   8.838268   2.076933      0.396855      2.089588      0.396855     334.92
   8.841608   2.076899      0.396855      2.088885      0.396855     335.72
   8.844948   2.076864      0.396855      2.088171      0.396855     336.51
   8.848289   2.076829      0.396855      2.087446      0.396855     337.31
   8.851629   2.076793      0.396855      2.086711      0.396855     338.11
   8.854970   2.076756      0.396854      2.085964      0.396855     338.91
   8.858310   2.076720      0.396854      2.085207      0.396854     339.71
   8.861651   2.076682      0.396854      2.084438      0.396854     340.51
   8.864992   2.076644      0.396854      2.083658      0.396854     341.31
   8.868333   2.076605      0.396854      2.082866      0.396854     342.12
   8.871674   2.076566      0.396854      2.082062      0.396854     342.92
   8.875016   2.076526      0.396854      2.081246      0.396854     343.72
   8.878357   2.076486      0.396854      2.080418      0.396854     344.53
   8.881699   2.076445      0.396854      2.079578      0.396854     345.34
   8.885040   2.076403      0.396854      2.078726      0.396854     346.14
   8.888382   2.076360      0.396854      2.077861      0.396854     346.95
   8.891724   2.076317      0.396854      2.076983      0.396854     347.76
   8.895066   2.076274      0.396854      2.076092      0.396854     348.57
   8.898408   2.076229      0.396854      2.075188      0.396854     349.38
   8.901750   2.076184      0.396854      2.074270      0.396854     350.19
   8.905093   2.076138      0.396853      2.073339      0.396854     351.00
   8.908436   2.076092      0.396853      2.072395      0.396853     351.81
   8.911778   2.076045      0.396853      2.071437      0.396853     352.62
   8.915121   2.075997      0.396853      2.070464      0.396853     353.43
   8.918464   2.075948      0.396853      2.069477      0.396853     354.25
   8.921808   2.075898      0.396853      2.068476      0.396853     355.06
   8.925151   2.075848      0.396853      2.067461      0.396853     355.87
   8.928494   2.075797      0.396853      2.066430      0.396853     356.69
   8.931838   2.075745      0.396853      2.065385      0.396853     357.50
   8.935182   2.075693      0.396853      2.064324      0.396853     358.31
   8.938526   2.075639      0.396853      2.063248      0.396853     359.13
   8.941870   2.075585      0.396853      2.062156      0.396853     359.94
   8.945214   2.075530      0.396852      2.061048      0.396853     360.76
   8.948559   2.075474      0.396852      2.059924      0.396853     361.58
   8.951904   2.075417      0.396852      2.058784      0.396852     362.39
   8.955248   2.075359      0.396852      2.057628      0.396852     363.21
   8.958594   2.075300      0.396852      2.056455      0.396852     364.02
   8.961939   2.075241      0.396852      2.055265      0.396852     364.84
   8.965284   2.075180      0.396852      2.054058      0.396852     365.66
   8.968630   2.075119      0.396852      2.052833      0.396852     366.47
   8.971976   2.075057      0.396852      2.051591      0.396852     367.29
   8.975322   2.074993      0.396852      2.050332      0.396852     368.10
   8.978668   2.074929      0.396852      2.049054      0.396852     368.92
   8.982014   2.074863      0.396851      2.047758      0.396852     369.74
   8.985361   2.074797      0.396851      2.046443      0.396851     370.55
   8.988707   2.074730      0.396851      2.045110      0.396851     371.37
   8.992054   2.074661      0.396851      2.043757      0.396851     372.18
   8.995402   2.074592      0.396851      2.042386      0.396851     373.00
   8.998749   2.074521      0.396851      2.040995      0.396851     373.81
   9.002097   2.074449      0.396851      2.039584      0.396851     374.63
   9.005445   2.074376      0.396851      2.038154      0.396851     375.44
   9.008793   2.074302      0.396851      2.036703      0.396851     376.25
   9.012141   2.074227      0.396850      2.035231      0.396851     377.07
   9.015490   2.074151      0.396850      2.033740      0.396850     377.88
   9.018838   2.074073      0.396850      2.032227      0.396850     378.69
   9.022188   2.073995      0.396850      2.030692      0.396850     379.50
   9.025537   2.073915      0.396850      2.029137      0.396850     380.31
   9.028886   2.073834      0.396850      2.027559      0.396850     381.12
   9.032236   2.073751      0.396850      2.025960      0.396850     381.93
   9.035586   2.073667      0.396850      2.024338      0.396850     382.74
   9.038937   2.073582      0.396849      2.022694      0.396850     383.55
   9.042287   2.073496      0.396849      2.021027      0.396849     384.35
   9.045638   2.073408      0.396849      2.019337      0.396849     385.16
   9.048989   2.073319      0.396849      2.017624      0.396849     385.96
   9.052340   2.073228      0.396849      2.015887      0.396849     386.77
   9.055692   2.073136      0.396849      2.014126      0.396849     387.57
   9.059044   2.073043      0.396848      2.012340      0.396849     388.37
   9.062396   2.072948      0.396848      2.010531      0.396849     389.17
   9.065749   2.072852      0.396848      2.008696      0.396848     389.97
   9.069102   2.072754      0.396848      2.006837      0.396848     390.77
   9.072455   2.072655      0.396848      2.004952      0.396848     391.56
   9.075808   2.072554      0.396848      2.003041      0.396848     392.36
   9.079162   2.072451      0.396848      2.001105      0.396848     393.15
   9.082516   2.072347      0.396847      1.999142      0.396848     393.94
   9.085871   2.072241      0.396847      1.997153      0.396848     394.73
   9.089226   2.072134      0.396847      1.995137      0.396847     395.52
   9.092581   2.072025      0.396847      1.993094      0.396847     396.31
   9.095936   2.071914      0.396847      1.991023      0.396847     397.09
   9.099292   2.071802      0.396846      1.988925      0.396847     397.87
   9.102648   2.071687      0.396846      1.986799      0.396847     398.65
   9.106005   2.071571      0.396846      1.984644      0.396847     399.43
   9.109361   2.071453      0.396846      1.982461      0.396846     400.21
   9.112719   2.071333      0.396846      1.980249      0.396846     400.98
   9.116076   2.071212      0.396846      1.978007      0.396846     401.75
   9.119434   2.071088      0.396845      1.975736      0.396846     402.52
   9.122793   2.070963      0.396845      1.973436      0.396846     403.29
   9.126151   2.070835      0.396845      1.971105      0.396845     404.05
   9.129510   2.070706      0.396845      1.968744      0.396845     404.82
   9.132870   2.070574      0.396845      1.966351      0.396845     405.58
   9.136230   2.070441      0.396844      1.963928      0.396845     406.33
   9.139590   2.070305      0.396844      1.961474      0.396845     407.09
   9.142951   2.070167      0.396844      1.958987      0.396844     407.84
   9.146313   2.070027      0.396844      1.956469      0.396844     408.59
   9.149674   2.069885      0.396843      1.953919      0.396844     409.33
   9.153036   2.069740      0.396843      1.951336      0.396844     410.07
   9.156399   2.069594      0.396843      1.948719      0.396844     410.81
   9.159762   2.069445      0.396843      1.946070      0.396843     411.55
   9.163126   2.069293      0.396842      1.943387      0.396843     412.28
   9.166490   2.069139      0.396842      1.940670      0.396843     413.01
   9.169854   2.068983      0.396842      1.937920      0.396843     413.73
   9.173219   2.068825      0.396842      1.935134      0.396843     414.45
   9.176584   2.068663      0.396841      1.932314      0.396842     415.17
   9.179950   2.068500      0.396841      1.929459      0.396842     415.89
   9.183317   2.068333      0.396841      1.926568      0.396842     416.60
   9.186684   2.068164      0.396841      1.923642      0.396842     417.30
   9.190051   2.067993      0.396840      1.920680      0.396841     418.00
   9.193420   2.067818      0.396840      1.917681      0.396841     418.70
   9.196788   2.067641      0.396840      1.914646      0.396841     419.40
   9.200157   2.067462      0.396839      1.911575      0.396841     420.08
   9.203527   2.067279      0.396839      1.908466      0.396840     420.77
   9.206897   2.067093      0.396839      1.905319      0.396840     421.45
   9.210268   2.066905      0.396839      1.902135      0.396840     422.12
   9.213640   2.066713      0.396838      1.898913      0.396839     422.79
