 # log(r) log(d) del_ad  del_el  del  del_rad  log(v)
   8.349458   2.054242      0.396913      1.720626      0.405590     219.65
   8.352791   2.054247      0.396913      1.720586      0.405463     220.22
   8.356125   2.054251      0.396913      1.720552      0.405399     220.79
   8.359458   2.054255      0.396913      1.720521      0.405334     221.36
   8.362791   2.054260      0.396913      1.720495      0.405270     221.93
   8.366124   2.054264      0.396913      1.720473      0.405206     222.50
   8.369457   2.054269      0.396913      1.720454      0.405143     223.07
   8.372791   2.054273      0.396913      1.720440      0.405081     223.65
   8.376124   2.054278      0.396913      1.720430      0.405018     224.23
   8.379457   2.054282      0.396913      1.720424      0.404957     224.81
   8.382790   2.054287      0.396913      1.720421      0.404895     225.39
   8.386123   2.054291      0.396913      1.720422      0.404835     225.97
   8.389456   2.054296      0.396913      1.720426      0.404774     226.55
   8.392789   2.054300      0.396913      1.720434      0.404714     227.14
   8.396122   2.054305      0.396913      1.720446      0.404655     227.72
   8.399455   2.054309      0.396913      1.720460      0.404596     228.31
   8.402787   2.054314      0.396914      1.720478      0.404537     228.90
   8.406120   2.054318      0.396914      1.720500      0.404479     229.50
   8.409453   2.054323      0.396914      1.720524      0.404422     230.09
   8.412786   2.054327      0.396914      1.720552      0.404364     230.69
   8.416119   2.054332      0.396914      1.720582      0.404308     231.28
   8.419452   2.054336      0.396914      1.720616      0.404251     231.88
   8.422784   2.054341      0.396914      1.720652      0.404195     232.48
   8.426117   2.054345      0.396914      1.720691      0.404140     233.09
   8.429450   2.054350      0.396914      1.720733      0.404085     233.69
   8.432782   2.054354      0.396914      1.720778      0.404030     234.30
   8.436115   2.054359      0.396914      1.720825      0.403976     234.90
   8.439448   2.054363      0.396914      1.720875      0.403922     235.51
   8.442780   2.054368      0.396914      1.720928      0.403868     236.12
   8.446113   2.054372      0.396914      1.720983      0.403815     236.74
   8.449446   2.054377      0.396914      1.721040      0.403762     237.35
   8.452778   2.054381      0.396914      1.721100      0.403710     237.97
   8.456111   2.054386      0.396914      1.721162      0.403658     238.59
   8.459443   2.054390      0.396914      1.721227      0.403607     239.21
   8.462776   2.054395      0.396914      1.721293      0.403556     239.83
   8.466108   2.054399      0.396915      1.721362      0.403505     240.45
   8.469441   2.054404      0.396915      1.721433      0.403455     241.07
   8.472773   2.054408      0.396915      1.721506      0.403405     241.70
   8.476106   2.054413      0.396915      1.721581      0.403355     242.33
   8.479438   2.054417      0.396915      1.721658      0.403306     242.96
   8.482771   2.054421      0.396915      1.721737      0.403257     243.59
   8.486103   2.054426      0.396915      1.721818      0.403208     244.22
   8.489435   2.054430      0.396915      1.721900      0.403160     244.86
   8.492768   2.054435      0.396915      1.721985      0.403113     245.50
   8.496100   2.054439      0.396915      1.722071      0.403065     246.14
   8.499433   2.054443      0.396915      1.722159      0.403018     246.78
   8.502765   2.054447      0.396915      1.722249      0.402971     247.42
   8.506097   2.054452      0.396915      1.722340      0.402925     248.06
   8.509430   2.054456      0.396915      1.722433      0.402879     248.71
   8.512762   2.054460      0.396915      1.722527      0.402833     249.36
   8.516094   2.054465      0.396915      1.722623      0.402788     250.00
   8.519427   2.054469      0.396916      1.722720      0.402743     250.66
   8.522759   2.054473      0.396916      1.722819      0.402698     251.31
   8.526091   2.054477      0.396916      1.722919      0.402654     251.96
   8.529424   2.054481      0.396916      1.723020      0.402610     252.62
   8.532756   2.054485      0.396916      1.723122      0.402566     253.28
   8.536088   2.054489      0.396916      1.723226      0.402523     253.94
   8.539420   2.054493      0.396916      1.723331      0.402480     254.60
   8.542753   2.054497      0.396916      1.723438      0.402437     255.26
   8.546085   2.054501      0.396916      1.723545      0.402395     255.93
   8.549417   2.054505      0.396916      1.723653      0.402353     256.59
   8.552749   2.054509      0.396916      1.723763      0.402311     257.26
   8.556082   2.054513      0.396916      1.723873      0.402269     257.93
   8.559414   2.054517      0.396916      1.723984      0.402228     258.61
   8.562746   2.054521      0.396916      1.724097      0.402188     259.28
   8.566078   2.054525      0.396916      1.724210      0.402147     259.95
   8.569411   2.054528      0.396917      1.724324      0.402107     260.63
   8.572743   2.054532      0.396917      1.724439      0.402067     261.31
   8.576075   2.054536      0.396917      1.724554      0.402027     261.99
   8.579407   2.054539      0.396917      1.724671      0.401988     262.68
   8.582740   2.054543      0.396917      1.724788      0.401949     263.36
   8.586072   2.054546      0.396917      1.724905      0.401910     264.05
   8.589404   2.054550      0.396917      1.725023      0.401871     264.74
   8.592736   2.054553      0.396917      1.725142      0.401833     265.43
   8.596068   2.054556      0.396917      1.725261      0.401795     266.12
   8.599401   2.054560      0.396917      1.725381      0.401758     266.81
   8.602733   2.054563      0.396917      1.725501      0.401720     267.51
   8.606065   2.054566      0.396917      1.725622      0.401683     268.20
   8.609397   2.054569      0.396917      1.725743      0.401646     268.90
   8.612729   2.054572      0.396917      1.725864      0.401610     269.60
   8.616062   2.054575      0.396918      1.725986      0.401574     270.31
   8.619394   2.054578      0.396918      1.726108      0.401538     271.01
   8.622726   2.054581      0.396918      1.726230      0.401502     271.72
   8.626058   2.054584      0.396918      1.726352      0.401466     272.43
   8.629391   2.054586      0.396918      1.726474      0.401431     273.13
   8.632723   2.054589      0.396918      1.726596      0.401396     273.85
   8.636055   2.054592      0.396918      1.726719      0.401361     274.56
   8.639387   2.054594      0.396918      1.726841      0.401327     275.28
   8.642720   2.054597      0.396918      1.726963      0.401293     275.99
   8.646052   2.054599      0.396918      1.727086      0.401259     276.71
   8.649384   2.054601      0.396918      1.727208      0.401225     277.43
   8.652716   2.054603      0.396918      1.727329      0.401192     278.16
   8.656049   2.054605      0.396918      1.727451      0.401158     278.88
   8.659381   2.054607      0.396919      1.727572      0.401125     279.61
   8.662713   2.054609      0.396919      1.727693      0.401093     280.33
   8.666046   2.054611      0.396919      1.727814      0.401060     281.06
   8.669378   2.054612      0.396919      1.727934      0.401028     281.80
   8.672710   2.054614      0.396919      1.728054      0.400996     282.53
   8.676043   2.054615      0.396919      1.728173      0.400964     283.26
   8.679375   2.054617      0.396919      1.728292      0.400933     284.00
   8.682707   2.054618      0.396919      1.728410      0.400901     284.74
   8.686040   2.054619      0.396919      1.728527      0.400870     285.48
   8.689372   2.054620      0.396919      1.728643      0.400839     286.22
   8.692705   2.054621      0.396919      1.728759      0.400809     286.97
   8.696037   2.054622      0.396919      1.728874      0.400778     287.71
   8.699370   2.054622      0.396920      1.728988      0.400748     288.46
   8.702702   2.054623      0.396920      1.729102      0.400718     289.21
   8.706034   2.054623      0.396920      1.729214      0.400688     289.96
   8.709367   2.054624      0.396920      1.729325      0.400658     290.72
   8.712699   2.054624      0.396920      1.729435      0.400629     291.47
   8.716032   2.054624      0.396920      1.729544      0.400600     292.23
   8.719365   2.054623      0.396920      1.729652      0.400571     292.99
   8.722697   2.054623      0.396920      1.729758      0.400542     293.75
   8.726030   2.054623      0.396920      1.729863      0.400514     294.51
   8.729362   2.054622      0.396920      1.729967      0.400485     295.28
   8.732695   2.054621      0.396920      1.730069      0.400457     296.04
   8.736028   2.054620      0.396921      1.730170      0.400429     296.81
   8.739360   2.054619      0.396921      1.730269      0.400402     297.58
   8.742693   2.054618      0.396921      1.730367      0.400374     298.35
   8.746026   2.054616      0.396921      1.730463      0.400347     299.12
   8.749358   2.054615      0.396921      1.730557      0.400320     299.90
   8.752691   2.054613      0.396921      1.730649      0.400293     300.68
   8.756024   2.054611      0.396921      1.730740      0.400266     301.46
   8.759357   2.054609      0.396921      1.730828      0.400239     302.24
   8.762690   2.054606      0.396921      1.730915      0.400213     303.02
   8.766023   2.054604      0.396921      1.730999      0.400187     303.80
   8.769356   2.054601      0.396921      1.731081      0.400161     304.59
   8.772689   2.054598      0.396922      1.731161      0.400135     305.38
   8.776021   2.054595      0.396922      1.731239      0.400109     306.16
   8.779355   2.054591      0.396922      1.731314      0.400084     306.96
   8.782688   2.054587      0.396922      1.731386      0.400058     307.75
   8.786021   2.054584      0.396922      1.731457      0.400033     308.54
   8.789354   2.054579      0.396922      1.731524      0.400008     309.34
   8.792687   2.054575      0.396922      1.731589      0.399983     310.14
   8.796020   2.054570      0.396922      1.731651      0.399959     310.94
   8.799353   2.054566      0.396922      1.731710      0.399934     311.74
   8.802687   2.054561      0.396922      1.731766      0.399910     312.54
   8.806020   2.054555      0.396923      1.731819      0.399886     313.35
   8.809353   2.054550      0.396923      1.731869      0.399862     314.15
   8.812687   2.054544      0.396923      1.731916      0.399838     314.96
   8.816020   2.054537      0.396923      1.731959      0.399815     315.77
   8.819354   2.054531      0.396923      1.731999      0.399791     316.58
   8.822687   2.054524      0.396923      1.732036      0.399768     317.40
   8.826021   2.054517      0.396923      1.732068      0.399745     318.21
   8.829354   2.054510      0.396923      1.732098      0.399722     319.03
   8.832688   2.054502      0.396923      1.732123      0.399699     319.85
   8.836022   2.054494      0.396923      1.732144      0.399676     320.67
   8.839356   2.054486      0.396924      1.732162      0.399654     321.49
   8.842690   2.054477      0.396924      1.732175      0.399631     322.31
   8.846023   2.054468      0.396924      1.732184      0.399609     323.14
   8.849357   2.054459      0.396924      1.732189      0.399587     323.96
   8.852691   2.054450      0.396924      1.732190      0.399565     324.79
   8.856025   2.054440      0.396924      1.732186      0.399543     325.62
   8.859360   2.054429      0.396924      1.732177      0.399522     326.45
   8.862694   2.054419      0.396924      1.732164      0.399500     327.28
   8.866028   2.054407      0.396924      1.732145      0.399479     328.12
   8.869362   2.054396      0.396925      1.732122      0.399458     328.95
   8.872697   2.054384      0.396925      1.732093      0.399437     329.79
   8.876031   2.054372      0.396925      1.732060      0.399416     330.63
   8.879366   2.054359      0.396925      1.732021      0.399395     331.47
   8.882700   2.054346      0.396925      1.731976      0.399374     332.31
   8.886035   2.054333      0.396925      1.731926      0.399354     333.16
   8.889370   2.054319      0.396925      1.731870      0.399334     334.00
   8.892705   2.054304      0.396925      1.731808      0.399313     334.85
   8.896039   2.054289      0.396925      1.731741      0.399293     335.69
   8.899374   2.054274      0.396926      1.731667      0.399273     336.54
   8.902709   2.054258      0.396926      1.731587      0.399253     337.39
   8.906045   2.054242      0.396926      1.731500      0.399234     338.25
   8.909380   2.054225      0.396926      1.731407      0.399214     339.10
   8.912715   2.054208      0.396926      1.731307      0.399195     339.95
   8.916051   2.054190      0.396926      1.731200      0.399175     340.81
   8.919386   2.054172      0.396926      1.731087      0.399156     341.67
   8.922722   2.054153      0.396926      1.730966      0.399137     342.52
   8.926057   2.054134      0.396926      1.730837      0.399118     343.38
   8.929393   2.054114      0.396927      1.730702      0.399099     344.25
   8.932729   2.054094      0.396927      1.730558      0.399080     345.11
   8.936065   2.054073      0.396927      1.730407      0.399062     345.97
   8.939401   2.054051      0.396927      1.730248      0.399043     346.84
   8.942737   2.054029      0.396927      1.730081      0.399025     347.70
   8.946073   2.054006      0.396927      1.729905      0.399006     348.57
   8.949410   2.053983      0.396927      1.729721      0.398988     349.44
   8.952746   2.053959      0.396927      1.729529      0.398970     350.31
   8.956083   2.053934      0.396927      1.729327      0.398952     351.18
   8.959420   2.053909      0.396928      1.729116      0.398934     352.05
   8.962756   2.053883      0.396928      1.728897      0.398917     352.92
   8.966093   2.053856      0.396928      1.728667      0.398899     353.79
   8.969430   2.053829      0.396928      1.728429      0.398882     354.67
   8.972768   2.053801      0.396928      1.728180      0.398864     355.54
   8.976105   2.053772      0.396928      1.727922      0.398847     356.42
   8.979442   2.053742      0.396928      1.727653      0.398830     357.30
   8.982780   2.053712      0.396928      1.727374      0.398812     358.17
   8.986118   2.053681      0.396928      1.727084      0.398795     359.05
   8.989456   2.053649      0.396929      1.726784      0.398779     359.93
   8.992794   2.053616      0.396929      1.726473      0.398762     360.81
   8.996132   2.053583      0.396929      1.726150      0.398745     361.69
   8.999470   2.053549      0.396929      1.725816      0.398728     362.58
   9.002809   2.053514      0.396929      1.725470      0.398712     363.46
   9.006147   2.053478      0.396929      1.725112      0.398696     364.34
   9.009486   2.053441      0.396929      1.724743      0.398679     365.22
   9.012825   2.053403      0.396929      1.724361      0.398663     366.11
   9.016164   2.053364      0.396929      1.723966      0.398647     366.99
   9.019503   2.053325      0.396930      1.723559      0.398631     367.88
   9.022843   2.053284      0.396930      1.723138      0.398615     368.76
   9.026182   2.053243      0.396930      1.722704      0.398599     369.65
   9.029522   2.053200      0.396930      1.722257      0.398583     370.54
   9.032862   2.053157      0.396930      1.721796      0.398567     371.42
   9.036202   2.053112      0.396930      1.721321      0.398552     372.31
   9.039542   2.053067      0.396930      1.720831      0.398536     373.20
   9.042883   2.053020      0.396930      1.720327      0.398521     374.09
   9.046224   2.052973      0.396930      1.719808      0.398505     374.97
   9.049565   2.052924      0.396930      1.719274      0.398490     375.86
   9.052906   2.052874      0.396931      1.718724      0.398475     376.75
   9.056247   2.052823      0.396931      1.718159      0.398460     377.64
   9.059588   2.052771      0.396931      1.717578      0.398445     378.52
   9.062930   2.052718      0.396931      1.716981      0.398430     379.41
   9.066272   2.052663      0.396931      1.716367      0.398415     380.30
   9.069614   2.052607      0.396931      1.715737      0.398400     381.19
   9.072957   2.052550      0.396931      1.715089      0.398385     382.07
   9.076299   2.052492      0.396931      1.714424      0.398371     382.96
   9.079642   2.052432      0.396931      1.713741      0.398356     383.85
   9.082985   2.052371      0.396931      1.713040      0.398342     384.73
   9.086329   2.052309      0.396932      1.712321      0.398327     385.62
   9.089672   2.052246      0.396932      1.711583      0.398313     386.50
   9.093016   2.052180      0.396932      1.710827      0.398299     387.39
   9.096360   2.052114      0.396932      1.710051      0.398284     388.27
   9.099705   2.052046      0.396932      1.709255      0.398270     389.15
   9.103049   2.051977      0.396932      1.708440      0.398256     390.04
   9.106394   2.051906      0.396932      1.707604      0.398242     390.92
   9.109740   2.051833      0.396932      1.706748      0.398228     391.80
   9.113085   2.051759      0.396932      1.705871      0.398214     392.68
   9.116431   2.051684      0.396932      1.704972      0.398200     393.56
   9.119777   2.051606      0.396932      1.704052      0.398187     394.43
   9.123123   2.051527      0.396933      1.703110      0.398173     395.31
   9.126470   2.051447      0.396933      1.702146      0.398159     396.18
   9.129817   2.051364      0.396933      1.701159      0.398146     397.06
   9.133164   2.051280      0.396933      1.700148      0.398132     397.93
   9.136512   2.051195      0.396933      1.699115      0.398119     398.80
   9.139860   2.051107      0.396933      1.698058      0.398105     399.67
   9.143208   2.051017      0.396933      1.696976      0.398092     400.54
   9.146557   2.050926      0.396933      1.695870      0.398079     401.40
   9.149906   2.050833      0.396933      1.694740      0.398065     402.27
   9.153256   2.050737      0.396933      1.693583      0.398052     403.13
   9.156605   2.050640      0.396933      1.692402      0.398039     403.99
   9.159955   2.050541      0.396933      1.691194      0.398026     404.85
   9.163306   2.050439      0.396933      1.689960      0.398013     405.70
   9.166657   2.050336      0.396933      1.688699      0.398000     406.55
   9.170008   2.050230      0.396933      1.687411      0.397987     407.41
   9.173360   2.050122      0.396933      1.686095      0.397974     408.25
   9.176712   2.050012      0.396934      1.684751      0.397961     409.10
   9.180065   2.049900      0.396934      1.683379      0.397949     409.94
   9.183418   2.049785      0.396934      1.681977      0.397936     410.78
   9.186771   2.049668      0.396934      1.680547      0.397923     411.62
   9.190125   2.049548      0.396934      1.679087      0.397911     412.46
   9.193479   2.049427      0.396934      1.677597      0.397898     413.29
   9.196834   2.049302      0.396934      1.676076      0.397886     414.12
   9.200189   2.049175      0.396934      1.674525      0.397873     414.94
   9.203545   2.049046      0.396934      1.672942      0.397861     415.76
   9.206901   2.048914      0.396934      1.671328      0.397848     416.58
   9.210258   2.048779      0.396934      1.669681      0.397836     417.40
   9.213615   2.048641      0.396934      1.668002      0.397824     418.21
   9.216973   2.048501      0.396934      1.666290      0.397811     419.02
   9.220331   2.048357      0.396934      1.664544      0.397799     419.82
